File: data/pcs_3_raman_xrd.csv
,Raman PC 1,Raman PC 2,Raman PC 3,XRD PC 1,XRD PC 2,XRD PC 3
0,2.10775,-1.05533,-1.50189,-1.15874,0.00976623,-0.519384
2,-2.16228,-1.45056,-2.08616,-4.32084,0.569925,0.451675
4,1.49778,-1.23092,-1.58228,1.47923,1.59791,-1.34454
6,5.75117,-0.828827,-0.822914,-5.17953,0.407685,0.784371
8,-3.29136,-1.92443,-1.39775,-1.76671,0.68561,-0.633803
10,-3.12218,-2.26934,-0.874227,0.0547873,1.38811,-0.5009
12,-2.60877,-1.84308,-1.54499,-1.75509,-1.45011,-0.508201
14,-1.2765,-1.60533,-1.66334,-4.13953,1.57167,-0.665319
16,4.40673,-1.01298,-1.03122,0.498551,1.7232,-0.607459
18,7.11053,-0.594931,-0.4103,-4.44702,1.94404,0.231974
20,2.69128,-1.09097,-1.36015,-1.04588,-0.796711,-0.971889
22,-4.81169,-1.35889,-0.563341,-0.399887,1.30141,-1.39398
24,-3.78273,-1.75984,-0.588165,-3.20845,0.0591545,-0.196317
26,-1.99562,-2.22431,-0.769777,-0.898648,1.25935,0.014578
28,-0.983647,-1.81463,-1.34664,-2.51817,1.05263,0.428129
30,4.46845,-1.08786,-0.987801,-1.54653,0.930372,-0.636627
32,6.95824,-0.669207,-0.45391,-4.27108,1.84299,0.117205
34,6.3816,-0.522619,-0.535725,0.749803,2.59119,-1.06329
36,-4.0167,-1.56267,-0.625981,2.29191,0.630314,-1.73346
38,-5.07847,-0.983281,-0.319717,-1.82183,-1.68916,-0.766106
40,-3.46579,-1.73614,-0.339365,-0.155223,-0.669454,-0.971038
42,-1.00799,-2.37392,-0.403081,-3.07328,0.556089,0.826162
44,1.4449,-1.59117,-1.2374,-3.97305,1.37608,-0.144491
46,6.60636,-0.772851,-0.55387,-3.27565,0.878602,0.371867
48,7.75161,-0.432246,-0.0939232,-4.33223,0.868327,1.0355
50,8.22869,0.0539768,0.514774,-0.465164,0.322811,-0.388302
52,-5.48015,-0.702526,-0.256233,-0.797718,-0.416778,-0.86081
54,-5.11082,-0.84703,-0.180283,-0.0706649,-1.5257,-0.836804
56,-3.92586,-1.20936,-0.0317902,-1.93954,-0.775851,-0.204048
58,-0.909605,-2.30045,-0.079302,-0.363641,1.556,0.260913
60,2.16361,-1.65714,-0.981944,0.788358,1.18993,0.278491
62,6.65158,-0.885912,-0.464046,-4.47386,1.57728,0.415444
64,7.81042,-0.451072,-0.0795299,-1.96754,1.83949,0.1496
66,8.20896,-0.241269,0.252467,-0.233082,2.38972,-1.02826
68,8.22536,0.0699471,0.530368,-1.86147,-0.732732,-1.18567
70,-5.61923,-0.451442,-0.0287278,-0.749819,-1.5241,0.732789
72,-4.77697,-0.765597,0.0448036,0.615684,1.16107,-1.03653
74,-2.34179,-1.556,0.0868172,-0.360149,0.614388,-0.0610021
76,1.0196,-2.42205,0.252975,-3.2242,2.24237,-0.247577
78,4.32774,-1.64242,-0.412102,-1.32194,0.670201,-0.717428
80,7.82162,-0.64475,-0.118879,-3.99933,1.80307,0.334757
82,8.17655,-0.34381,0.130214,-2.76739,1.85109,0.600259
84,-4.15354,-1.14724,-0.307781,-2.2798,-0.92719,0.311773
86,-5.4982,-0.434116,0.00740975,-1.21178,-2.32802,-0.987872
88,-5.53803,-0.36605,0.115419,-1.8152,-0.164835,0.195843
90,-4.16903,-0.852705,0.256628,2.94208,1.41335,-0.767805
92,-2.67367,-1.25327,0.458416,0.580715,1.02577,-1.29031
94,3.14082,-2.38974,0.480122,-4.32198,1.23933,0.746896
96,7.62382,-1.05325,0.0474435,-0.0126037,1.14168,-0.469309
98,8.06597,-0.374572,0.259533,-2.60193,1.30582,0.135922
100,8.28031,-0.235012,0.298228,-0.0348237,2.26553,-0.596217
102,-3.9942,-0.870881,-0.0807878,-1.08371,-2.18444,-0.0801063
104,-4.99609,-0.457558,0.144521,0.92381,-0.700372,-1.05869
106,-4.8243,-0.544211,0.270785,1.45387,-0.920935,-0.695128
108,-4.24855,-0.626888,0.44235,1.88701,-2.14232,-0.206827
110,-3.24357,-0.931211,0.690955,1.86315,0.75177,-0.890974
112,0.600528,-1.85326,1.1481,-3.64684,0.791856,0.27332
114,5.45054,-0.882487,0.50527,-2.9066,1.01315,0.788979
116,8.36017,-0.39429,0.309731,-3.0376,1.71559,0.184432
118,8.36364,-0.216538,0.351467,-3.58416,0.94315,-0.509663
120,-4.46262,-0.615665,0.087216,2.23716,0.271424,-1.03103
122,-5.24176,-0.285885,0.216243,0.421537,-1.47275,-1.15428
124,-4.97072,-0.353881,0.354071,-2.43274,-0.722653,0.797309
126,-5.10374,-0.264969,0.497697,3.22175,0.3506,-1.88993
128,-4.41457,-0.485148,0.737063,-0.0661768,1.41331,-0.317935
130,-1.34103,-1.32848,1.19036,-0.623889,0.792892,-0.737979
132,3.27798,-0.827485,1.06808,0.236131,0.151621,-0.67998
134,7.91586,-0.308886,0.522291,-2.53226,1.43271,-0.158507
136,8.36672,-0.136638,0.414731,-0.0181128,1.88889,0.550229
138,-6.49619,0.162478,0.106038,-0.939637,-1.53409,0.448704
140,-5.98972,0.0627835,0.262751,3.3429,0.130011,-0.805096
142,-5.83252,0.0233949,0.36272,0.413979,0.473326,-1.40059
144,-5.38043,-0.183243,0.583015,-4.21905,-1.71918,-0.400299
146,-4.35134,-0.432387,0.853228,0.558127,-1.58326,-0.19145
148,-4.38932,-0.314272,0.947407,-2.8111,0.238274,1.45064
150,0.284191,0.0673136,1.93454,-0.0990573,0.297132,-0.218768
152,7.58329,-0.0715095,0.661272,-3.09959,1.05754,-0.0755336
154,7.99972,-0.00237467,0.672419,-0.714893,2.4587,-0.330753
156,-4.71335,-0.294343,0.305607,2.05377,-1.01444,-1.22654
158,-5.43341,-0.0543945,0.39175,4.74152,-0.365632,-2.1006
160,-5.26454,-0.0529629,0.529253,0.637532,-1.39508,0.403479
162,-5.17602,-0.103687,0.695009,1.17974,-2.18397,-0.268239
164,-3.25968,-0.324805,1.2849,3.63306,0.621879,-1.64204
166,-2.52175,-0.133913,1.8756,-1.68485,-0.909047,-0.978982
168,0.234386,0.834263,0.998397,-0.00779451,1.61864,-1.01625
170,6.49673,0.419335,0.764186,-3.68038,-0.495302,1.45408
172,7.45106,0.338993,0.727442,-1.68235,1.48058,0.49271
174,-3.62812,-0.440393,0.47129,-0.154476,-1.93208,-0.964014
176,-5.62844,0.122603,0.409599,4.63437,-0.730594,-1.59246
178,-5.06111,-0.00794387,0.632956,0.131508,-2.66465,0.782005
180,-4.32535,0.000318269,1.05365,3.70408,-1.54005,-0.586621
182,-5.23462,0.542288,1.25513,0.442363,-1.98153,-0.572093
184,-2.08663,2.24176,0.215433,5.50765,0.19978,-1.50637
186,-1.38188,2.57561,0.621899,4.11751,0.627282,-0.84347
188,5.68982,0.804938,0.554063,1.1831,-0.0934365,-0.0883664
190,6.83668,0.623494,0.747577,-4.75547,0.77002,1.15285
192,-5.58589,0.170311,0.442104,1.35759,-1.35837,-0.738037
194,-4.75919,0.0134082,0.736855,-2.9514,-2.41384,1.04465
196,-5.80814,0.816552,0.752887,0.452492,-3.02204,-0.0965736
198,-0.0937032,2.47085,0.341445,0.883817,-1.92686,0.221182
200,3.03769,1.76871,-0.0223459,5.79227,0.313307,-1.82282
202,1.12247,2.20207,-0.398759,1.54147,0.404241,-0.758827
204,0.763227,2.0293,-0.315046,0.916555,0.903451,0.589426
206,3.78383,1.71023,0.224661,0.998469,1.78726,-1.02646
208,-4.83829,-0.00360424,0.608346,1.27451,-2.71283,0.663937
210,-2.56797,1.07925,1.02382,0.746386,-2.7672,0.0407407
212,-2.7245,2.86375,-0.939887,5.29793,-2.67993,0.0277551
214,1.86466,2.13879,-0.437687,0.00467989,-3.17708,0.543327
216,1.55126,2.42372,-0.0941179,-0.584029,-3.6799,1.06003
218,-1.56999,2.26809,-0.787011,-0.509405,-1.87905,0.0895164
220,0.0305945,2.05951,-0.558559,0.681837,-0.391652,0.0899703
222,-1.90962,2.3326,-0.707246,-0.57461,0.498769,-0.302738
224,5.20255,1.24861,0.21907,3.75897,-2.32339,-0.0588764
226,1.08818,2.10208,-0.720122,1.83773,-3.49152,0.412557
228,-2.59848,2.47833,-0.926071,2.76509,-3.21314,0.391277
230,-0.458335,2.31933,-0.765581,4.48266,-1.62115,0.0874994
232,-3.72749,2.48093,-0.983247,2.19392,-1.26997,1.09164
234,-2.11449,2.44172,-0.975337,0.634061,-0.388729,-0.0715679
236,2.90165,1.83682,-0.635926,3.25799,-2.90543,1.48
238,-2.0198,2.33603,-0.970089,-0.801397,-3.62103,2.20972
240,-1.84726,2.34083,-0.819224,3.70974,-1.87743,1.38549
242,-0.418449,2.17882,-0.372655,-0.138627,-1.31023,1.41349
244,0.445833,1.9172,-0.338962,-0.549315,-1.80439,1.81196
246,-3.84409,2.54431,-0.71456,2.74533,-0.523895,0.582665
248,-0.189307,2.32215,-0.720587,6.6416,1.82743,3.17079
250,-2.76425,2.61469,-1.16294,9.19885,2.58396,2.48589
252,-2.91724,2.52982,-0.808868,7.25177,2.48001,3.20397
254,-2.13774,2.27895,-0.850187,3.61841,2.14774,3.38587
256,1.82334,0.0707258,1.3721,14.6486,4.82983,1.44054
258,3.17331,0.288446,1.06823,13.7934,4.57792,1.66161