File: data/xrd_fit.csv
,cubic,a_cubic,fwhm_cubic,I_cubic_1,tetragonal,a_tetragonal,c_tetragonal,fwhm_tetragonal,I_tetragonal_1,I_tetragonal_2,I_tetragonal_3,I_tetragonal_4
0,1,5.71657,5.08257,4.82904,0,-1.0,-1.0,-1.0,-1.0,-1.0,-1.0,-1.0
2,1,5.76452,7.01402,3.22421,0,-1.0,-1.0,-1.0,-1.0,-1.0,-1.0,-1.0
4,0,5.578125,-1.0,-1.0,0,-1.0,-1.0,-1.0,-1.0,-1.0,-1.0,-1.0
6,1,5.66192,6.76102,3.53029,0,-1.0,-1.0,-1.0,-1.0,-1.0,-1.0,-1.0
8,1,5.64249,3.71109,4.9935,0,-1.0,-1.0,-1.0,-1.0,-1.0,-1.0,-1.0
10,1,5.58584,3.78144,4.16969,0,-1.0,-1.0,-1.0,-1.0,-1.0,-1.0,-1.0
12,1,5.93384,6.43304,5.59849,0,-1.0,-1.0,-1.0,-1.0,-1.0,-1.0,-1.0
14,0,5.578125,-1.0,-1.0,0,-1.0,-1.0,-1.0,-1.0,-1.0,-1.0,-1.0
16,1,5.57735,3.99986,3.36236,0,-1.0,-1.0,-1.0,-1.0,-1.0,-1.0,-1.0
18,0,5.5,-1.0,-1.0,0,-1.0,-1.0,-1.0,-1.0,-1.0,-1.0,-1.0
20,1,5.61227,3.74962,7.52935,0,-1.0,-1.0,-1.0,-1.0,-1.0,-1.0,-1.0
22,1,5.56413,2.71382,5.19097,0,-1.0,-1.0,-1.0,-1.0,-1.0,-1.0,-1.0
24,1,5.58985,3.7734,5.66204,0,-1.0,-1.0,-1.0,-1.0,-1.0,-1.0,-1.0
26,1,5.56474,2.46568,2.98772,0,-1.0,-1.0,-1.0,-1.0,-1.0,-1.0,-1.0
28,0,5.5625,-1.0,-1.0,0,-1.0,-1.0,-1.0,-1.0,-1.0,-1.0,-1.0
30,0,5.5625,-1.0,-1.0,0,-1.0,-1.0,-1.0,-1.0,-1.0,-1.0,-1.0
32,0,5.515625,-1.0,-1.0,0,-1.0,-1.0,-1.0,-1.0,-1.0,-1.0,-1.0
34,1,5.37579,1.34912,3.60188,0,-1.0,-1.0,-1.0,-1.0,-1.0,-1.0,-1.0
36,1,5.64108,3.15131,5.97726,0,-1.0,-1.0,-1.0,-1.0,-1.0,-1.0,-1.0
38,1,5.84169,5.18053,6.46802,0,-1.0,-1.0,-1.0,-1.0,-1.0,-1.0,-1.0
40,1,5.63225,4.41641,6.38332,0,-1.0,-1.0,-1.0,-1.0,-1.0,-1.0,-1.0
42,0,5.609375,-1.0,-1.0,0,-1.0,-1.0,-1.0,-1.0,-1.0,-1.0,-1.0
44,0,5.59375,-1.0,-1.0,0,-1.0,-1.0,-1.0,-1.0,-1.0,-1.0,-1.0
46,1,5.57052,4.58209,3.79827,0,-1.0,-1.0,-1.0,-1.0,-1.0,-1.0,-1.0
48,0,5.484375,-1.0,-1.0,0,-1.0,-1.0,-1.0,-1.0,-1.0,-1.0,-1.0
50,1,5.6502,3.29788,5.60379,0,-1.0,-1.0,-1.0,-1.0,-1.0,-1.0,-1.0
52,1,5.68139,3.3529,6.24267,0,-1.0,-1.0,-1.0,-1.0,-1.0,-1.0,-1.0
54,1,5.72033,4.84269,7.55515,0,-1.0,-1.0,-1.0,-1.0,-1.0,-1.0,-1.0
56,1,5.67382,4.19405,6.08637,0,-1.0,-1.0,-1.0,-1.0,-1.0,-1.0,-1.0
58,0,5.625,-1.0,-1.0,0,-1.0,-1.0,-1.0,-1.0,-1.0,-1.0,-1.0
60,0,5.59375,-1.0,-1.0,0,-1.0,-1.0,-1.0,-1.0,-1.0,-1.0,-1.0
62,1,5.43013,2.98862,4.1201,0,-1.0,-1.0,-1.0,-1.0,-1.0,-1.0,-1.0
64,1,5.70836,3.90582,2.03518,0,-1.0,-1.0,-1.0,-1.0,-1.0,-1.0,-1.0
66,0,5.46875,-1.0,-1.0,0,-1.0,-1.0,-1.0,-1.0,-1.0,-1.0,-1.0
68,1,5.66556,3.41293,6.70146,0,-1.0,-1.0,-1.0,-1.0,-1.0,-1.0,-1.0
70,1,5.74477,4.53551,6.71377,0,-1.0,-1.0,-1.0,-1.0,-1.0,-1.0,-1.0
72,1,5.63218,4.10528,5.66531,0,-1.0,-1.0,-1.0,-1.0,-1.0,-1.0,-1.0
74,1,5.91323,6.10163,3.8309,0,-1.0,-1.0,-1.0,-1.0,-1.0,-1.0,-1.0
76,0,5.625,-1.0,-1.0,0,-1.0,-1.0,-1.0,-1.0,-1.0,-1.0,-1.0
78,1,5.52822,3.09003,6.40706,0,-1.0,-1.0,-1.0,-1.0,-1.0,-1.0,-1.0
80,0,5.546875,-1.0,-1.0,0,-1.0,-1.0,-1.0,-1.0,-1.0,-1.0,-1.0
82,0,5.5,-1.0,-1.0,0,-1.0,-1.0,-1.0,-1.0,-1.0,-1.0,-1.0
84,1,5.70701,3.46223,6.8131,0,-1.0,-1.0,-1.0,-1.0,-1.0,-1.0,-1.0
86,1,5.69709,4.92993,8.29582,0,-1.0,-1.0,-1.0,-1.0,-1.0,-1.0,-1.0
88,1,5.80558,3.57829,4.96808,0,-1.0,-1.0,-1.0,-1.0,-1.0,-1.0,-1.0
90,1,5.65283,2.95513,5.15215,0,-1.0,-1.0,-1.0,-1.0,-1.0,-1.0,-1.0
92,1,5.63033,4.76849,4.79841,0,-1.0,-1.0,-1.0,-1.0,-1.0,-1.0,-1.0
94,0,5.625,-1.0,-1.0,0,-1.0,-1.0,-1.0,-1.0,-1.0,-1.0,-1.0
96,1,5.61574,2.85238,3.75741,0,-1.0,-1.0,-1.0,-1.0,-1.0,-1.0,-1.0
98,0,5.5625,-1.0,-1.0,0,-1.0,-1.0,-1.0,-1.0,-1.0,-1.0,-1.0
100,0,5.53125,-1.0,-1.0,0,-1.0,-1.0,-1.0,-1.0,-1.0,-1.0,-1.0
102,1,5.72784,3.64477,8.25057,0,-1.0,-1.0,-1.0,-1.0,-1.0,-1.0,-1.0
104,1,5.6358,3.5939,7.63291,0,-1.0,-1.0,-1.0,-1.0,-1.0,-1.0,-1.0
106,1,5.75952,4.56878,7.17231,0,-1.0,-1.0,-1.0,-1.0,-1.0,-1.0,-1.0
108,1,5.85822,5.24173,7.45406,0,-1.0,-1.0,-1.0,-1.0,-1.0,-1.0,-1.0
110,1,5.86068,6.26201,4.16237,0,-1.0,-1.0,-1.0,-1.0,-1.0,-1.0,-1.0
112,0,5.640625,-1.0,-1.0,0,-1.0,-1.0,-1.0,-1.0,-1.0,-1.0,-1.0
114,0,5.609375,-1.0,-1.0,0,-1.0,-1.0,-1.0,-1.0,-1.0,-1.0,-1.0
116,0,5.578125,-1.0,-1.0,0,-1.0,-1.0,-1.0,-1.0,-1.0,-1.0,-1.0
118,0,5.53125,-1.0,-1.0,0,-1.0,-1.0,-1.0,-1.0,-1.0,-1.0,-1.0
120,1,5.73107,3.50146,6.33616,0,-1.0,-1.0,-1.0,-1.0,-1.0,-1.0,-1.0
122,1,5.73184,4.01994,7.68114,0,-1.0,-1.0,-1.0,-1.0,-1.0,-1.0,-1.0
124,1,5.65699,4.17235,6.14563,0,-1.0,-1.0,-1.0,-1.0,-1.0,-1.0,-1.0
126,1,5.70602,4.22807,6.2937,0,-1.0,-1.0,-1.0,-1.0,-1.0,-1.0,-1.0
128,1,5.62366,2.50537,3.95132,0,-1.0,-1.0,-1.0,-1.0,-1.0,-1.0,-1.0
130,1,5.65461,4.06036,4.03794,0,-1.0,-1.0,-1.0,-1.0,-1.0,-1.0,-1.0
132,1,5.63851,4.7202,4.8786,0,-1.0,-1.0,-1.0,-1.0,-1.0,-1.0,-1.0
134,0,5.59375,-1.0,-1.0,0,-1.0,-1.0,-1.0,-1.0,-1.0,-1.0,-1.0
136,0,5.5625,-1.0,-1.0,0,-1.0,-1.0,-1.0,-1.0,-1.0,-1.0,-1.0
138,1,5.67834,4.28288,7.83534,0,-1.0,-1.0,-1.0,-1.0,-1.0,-1.0,-1.0
140,1,5.69594,3.46316,7.25816,0,-1.0,-1.0,-1.0,-1.0,-1.0,-1.0,-1.0
142,1,5.68604,2.83739,5.16046,0,-1.0,-1.0,-1.0,-1.0,-1.0,-1.0,-1.0
144,1,5.69724,3.94847,7.13631,0,-1.0,-1.0,-1.0,-1.0,-1.0,-1.0,-1.0
146,1,5.75694,3.76809,7.62095,0,-1.0,-1.0,-1.0,-1.0,-1.0,-1.0,-1.0
148,0,5.71875,-1.0,-1.0,0,-1.0,-1.0,-1.0,-1.0,-1.0,-1.0,-1.0
150,1,5.65167,7.42729,5.14173,0,-1.0,-1.0,-1.0,-1.0,-1.0,-1.0,-1.0
152,1,5.62243,4.92245,3.289585,0,-1.0,-1.0,-1.0,-1.0,-1.0,-1.0,-1.0
154,0,5.59375,-1.0,-1.0,0,-1.0,-1.0,-1.0,-1.0,-1.0,-1.0,-1.0
156,1,5.75135,3.64897,7.38568,0,-1.0,-1.0,-1.0,-1.0,-1.0,-1.0,-1.0
158,1,5.7582,3.28512,8.3896,0,-1.0,-1.0,-1.0,-1.0,-1.0,-1.0,-1.0
160,1,5.75248,3.84602,7.47924,0,-1.0,-1.0,-1.0,-1.0,-1.0,-1.0,-1.0
162,1,5.8943,5.09535,8.16016,0,-1.0,-1.0,-1.0,-1.0,-1.0,-1.0,-1.0
164,1,5.77831,3.61045,5.7941,0,-1.0,-1.0,-1.0,-1.0,-1.0,-1.0,-1.0
166,1,5.71713,4.38079,5.97336,0,-1.0,-1.0,-1.0,-1.0,-1.0,-1.0,-1.0
168,1,5.65689,2.8609,3.49435,0,-1.0,-1.0,-1.0,-1.0,-1.0,-1.0,-1.0
170,1,5.64056,5.81579,4.53128,0,-1.0,-1.0,-1.0,-1.0,-1.0,-1.0,-1.0
172,1,5.46491,3.05305,4.05233,0,-1.0,-1.0,-1.0,-1.0,-1.0,-1.0,-1.0
174,1,5.76711,3.74033,7.58109,0,-1.0,-1.0,-1.0,-1.0,-1.0,-1.0,-1.0
176,1,5.77474,3.92536,8.39784,0,-1.0,-1.0,-1.0,-1.0,-1.0,-1.0,-1.0
178,1,5.80514,3.95438,8.59578,0,-1.0,-1.0,-1.0,-1.0,-1.0,-1.0,-1.0
180,1,5.7671,4.23445,8.25997,0,-1.0,-1.0,-1.0,-1.0,-1.0,-1.0,-1.0
182,1,5.76608,5.24922,8.31964,0,-1.0,-1.0,-1.0,-1.0,-1.0,-1.0,-1.0
184,1,5.8529,5.23843,6.08075,0,-1.0,-1.0,-1.0,-1.0,-1.0,-1.0,-1.0
186,1,5.81454,7.40802,5.15818,0,-1.0,-1.0,-1.0,-1.0,-1.0,-1.0,-1.0
188,1,5.74235,5.34535,5.72489,0,-1.0,-1.0,-1.0,-1.0,-1.0,-1.0,-1.0
190,0,5.671875,-1.0,-1.0,0,-1.0,-1.0,-1.0,-1.0,-1.0,-1.0,-1.0
192,1,5.7912,3.36688,6.9377,0,-1.0,-1.0,-1.0,-1.0,-1.0,-1.0,-1.0
194,1,5.80792,4.08352,8.34909,0,-1.0,-1.0,-1.0,-1.0,-1.0,-1.0,-1.0
196,1,5.84084,3.63043,9.76942,0,-1.0,-1.0,-1.0,-1.0,-1.0,-1.0,-1.0
198,1,5.84325,4.03019,8.82448,0,-1.0,-1.0,-1.0,-1.0,-1.0,-1.0,-1.0
200,1,5.73189,4.4686,7.64155,0,-1.0,-1.0,-1.0,-1.0,-1.0,-1.0,-1.0
202,1,5.68477,3.4385,5.66919,0,-1.0,-1.0,-1.0,-1.0,-1.0,-1.0,-1.0
204,1,5.89725,7.07694,4.13382,0,-1.0,-1.0,-1.0,-1.0,-1.0,-1.0,-1.0
206,1,5.88711,7.66938,2.57444,0,-1.0,-1.0,-1.0,-1.0,-1.0,-1.0,-1.0
208,1,5.78346,4.10734,8.90946,0,-1.0,-1.0,-1.0,-1.0,-1.0,-1.0,-1.0
210,1,5.90797,3.93586,10.0366,0,-1.0,-1.0,-1.0,-1.0,-1.0,-1.0,-1.0
212,1,5.88175,4.71352,11.27,0,-1.0,-1.0,-1.0,-1.0,-1.0,-1.0,-1.0
214,1,5.96404,4.6734,9.14371,0,-1.0,-1.0,-1.0,-1.0,-1.0,-1.0,-1.0
216,1,5.83717,4.18366,9.46972,0,-1.0,-1.0,-1.0,-1.0,-1.0,-1.0,-1.0
218,1,5.76761,4.72177,7.84985,0,-1.0,-1.0,-1.0,-1.0,-1.0,-1.0,-1.0
220,1,5.76708,5.28247,5.84265,0,-1.0,-1.0,-1.0,-1.0,-1.0,-1.0,-1.0
222,0,5.78125,-1.0,-1.0,0,-1.0,-1.0,-1.0,-1.0,-1.0,-1.0,-1.0
224,1,5.92054,3.56003,10.7211,0,-1.0,-1.0,-1.0,-1.0,-1.0,-1.0,-1.0
226,1,5.88396,3.73984,10.6496,0,-1.0,-1.0,-1.0,-1.0,-1.0,-1.0,-1.0
228,1,5.88245,4.43073,11.4348,0,-1.0,-1.0,-1.0,-1.0,-1.0,-1.0,-1.0
230,1,5.93636,4.02626,9.62052,0,-1.0,-1.0,-1.0,-1.0,-1.0,-1.0,-1.0
232,1,5.97022,4.29146,7.64901,0,-1.0,-1.0,-1.0,-1.0,-1.0,-1.0,-1.0
234,1,5.81804,4.39084,6.61767,0,-1.0,-1.0,-1.0,-1.0,-1.0,-1.0,-1.0
236,1,5.95824,4.11313,9.61979,0,-1.0,-1.0,-1.0,-1.0,-1.0,-1.0,-1.0
238,1,5.97393,3.6579,10.783,0,-1.0,-1.0,-1.0,-1.0,-1.0,-1.0,-1.0
240,1,6.00446,3.73118,10.0454,0,-1.0,-1.0,-1.0,-1.0,-1.0,-1.0,-1.0
242,1,5.98583,2.95714,8.39682,0,-1.0,-1.0,-1.0,-1.0,-1.0,-1.0,-1.0
244,1,5.97265,3.67399,8.4842,0,-1.0,-1.0,-1.0,-1.0,-1.0,-1.0,-1.0
246,1,5.95293,5.1092,6.61759,0,-1.0,-1.0,-1.0,-1.0,-1.0,-1.0,-1.0
248,1,6.02064,2.64191,7.3457,1,5.86952,3.18925,1.32848,14.7412,5e-13,9.23083,8.81013
250,1,6.06176,2.35617,7.75892,1,5.86521,3.20739,1.13019,17.4982,7.9967e-13,8.58271,9.60897
252,1,5.97446,2.29259,6.51757,1,5.85659,3.11366,1.60768,15.5108,5e-13,11.7248,8.96879
254,1,6.05586,2.78927,5.23866,1,5.85667,3.18079,1.29144,13.3213,5e-13,6.48824,8.42305
256,0,6.0,-1.0,-1.0,1,5.86482,3.19735,1.03898,42.0981,13.2466,11.2891,22.3435
258,1,6.01569,2.30312,3.28324,1,5.86525,3.18932,1.0883,37.8302,9.09234,12.5135,17.1143